Temperature (°C),Humidity (%),Pressure (mbar),Light,Sound,Potentiometer
16,46,1010,10,59,42
13.35,56,1010,63,82,42
14.95,56,1010,9,85,42
17.56,47,1010,11,200,42
21.54,37,1010,19,174,42
21.4,37,1010,10,61,42
21.39,37,1010,10,49,42
21.35,37,1010,8,174,42
21.32,37,1010,8,161,42
21.33,37,1010,8,188,42
21.5,37,1010,7,139,42
21.43,37,1010,7,146,42
